C:\Users\BIOMETRICS\Desktop\testRecordingTrigger.c3d



Time(ms):	EMG 9(uV):	

0.0	4.0284	
0.5	0.6043	
1.0	-11.0780	
1.5	-9.6681	
2.0	5.2369	
2.5	-3.6255	
3.0	10.8766	
3.5	-2.6184	
4.0	3.4241	
4.5	3.0213	
5.0	5.8412	
5.5	-6.8482	
6.0	-6.0426	
6.5	-2.8199	
7.0	1.8128	
7.5	3.6255	
8.0	5.0355	
8.5	4.6326	
9.0	-7.0497	
9.5	-3.8270	
10.0	-2.4170	
10.5	-8.4596	
11.0	-19.7391	
11.5	1.4099	
12.0	-3.6255	
12.5	-0.8057	
13.0	-2.2156	
13.5	0.2014	
14.0	-2.4170	
14.5	1.4099	
15.0	-0.6043	
15.5	-1.4099	
16.0	-1.8128	
16.5	1.8128	
17.0	-12.4880	
17.5	-6.0426	
18.0	2.6184	
18.5	-2.6184	
19.0	-6.0426	
19.5	11.0780	
20.0	5.8412	
20.5	3.8270	
21.0	1.4099	
21.5	-2.4170	
22.0	7.0497	
22.5	10.6752	
23.0	-1.4099	
23.5	-3.4241	
24.0	-10.6752	
24.5	-8.6610	
25.0	-14.9050	
25.5	-23.5660	
26.0	-8.8624	
26.5	-8.0568	
27.0	2.6184	
27.5	-1.4099	
28.0	-4.0284	
28.5	-8.6610	
29.0	8.8624	
29.5	-5.4383	
30.0	-7.6539	
30.5	-18.3291	
31.0	-4.2298	
31.5	-20.1419	
32.0	-9.2653	
32.5	5.2369	
33.0	1.2085	
33.5	5.0355	
34.0	-4.8341	
34.5	-9.2653	
35.0	-7.6539	
35.5	0.4028	
36.0	2.4170	
36.5	-5.4383	
37.0	-0.4028	
37.5	4.0284	
38.0	6.0426	
38.5	-1.8128	
39.0	-2.6184	
39.5	3.6255	
40.0	14.0993	
40.5	17.3220	
41.0	-0.2014	
41.5	14.3008	
42.0	9.8695	
42.5	-4.4312	
43.0	-6.4454	
43.5	-5.8412	
44.0	4.2298	
44.5	-10.2724	
45.0	-0.2014	
45.5	2.2156	
46.0	4.6326	
46.5	1.4099	
47.0	3.8270	
47.5	-1.4099	
48.0	-1.4099	
48.5	-16.5164	
49.0	-12.6894	
49.5	-14.7036	
50.0	-15.9121	
50.5	-14.3008	
51.0	-7.0497	
51.5	-9.2653	
52.0	-11.0780	
52.5	-3.8270	
53.0	8.4596	
53.5	7.0497	
54.0	5.2369	
54.5	3.4241	
55.0	8.6610	
55.5	-13.4951	
56.0	14.3008	
56.5	-6.2440	
57.0	-0.6043	
57.5	-3.2227	
58.0	-13.0922	
58.5	-10.8766	
59.0	-11.0780	
59.5	9.8695	
60.0	23.9689	
60.5	9.4667	
61.0	38.8739	
61.5	17.1206	
62.0	9.8695	
62.5	16.9192	
63.0	-3.6255	
63.5	-0.6043	
64.0	-11.2795	
64.5	-13.0922	
65.0	-2.2156	
65.5	18.7320	
66.0	11.4809	
66.5	13.8979	
67.0	17.1206	
67.5	-4.2298	
68.0	-17.3220	
68.5	2.0142	
69.0	-3.4241	
69.5	8.2582	
70.0	0.2014	
70.5	-15.5093	
71.0	-5.8412	
71.5	-17.3220	
72.0	-0.2014	
72.5	-5.0355	
73.0	-7.8553	
73.5	-8.2582	
74.0	-11.8837	
74.5	-15.5093	
75.0	-10.4738	
75.5	-3.0213	
76.0	-0.4028	
76.5	-15.5093	
77.0	-8.6610	
77.5	-21.1490	
78.0	-14.9050	
78.5	-8.8624	
79.0	-6.6468	
79.5	-1.0071	
80.0	-0.2014	
80.5	-10.0710	
81.0	-5.8412	
81.5	-0.6043	
82.0	-6.6468	
82.5	7.0497	
83.0	8.4596	
83.5	-2.6184	
84.0	-8.6610	
84.5	-3.2227	
85.0	-6.2440	
85.5	6.0426	
86.0	4.4312	
86.5	7.8553	
87.0	-1.6114	
87.5	3.6255	
88.0	-2.2156	
88.5	-9.6681	
89.0	-3.6255	
89.5	-5.0355	
90.0	-7.6539	
90.5	-7.0497	
91.0	-7.4525	
91.5	-13.2937	
92.0	-13.0922	
92.5	-3.0213	
93.0	-3.0213	
93.5	-3.6255	
94.0	11.0780	
94.5	-1.2085	
95.0	-3.2227	
95.5	-5.8412	
96.0	-5.2369	
96.5	-6.6468	
97.0	-11.6823	
97.5	-5.4383	
98.0	-8.8624	
98.5	-1.8128	
99.0	1.8128	
99.5	-2.8199	
100.0	-12.2866	
100.5	-14.5022	
101.0	-6.2440	
101.5	14.3008	
102.0	4.0284	
102.5	-4.4312	
103.0	-6.4454	
103.5	-11.2795	
104.0	1.0071	
104.5	5.0355	
105.0	-13.2937	
105.5	-9.2653	
106.0	-7.0497	
106.5	-14.7036	
107.0	-1.6114	
107.5	-4.2298	
108.0	-4.4312	
108.5	-14.7036	
109.0	-3.4241	
109.5	-12.6894	
110.0	0.0000	
110.5	-16.5164	
111.0	-7.6539	
111.5	-9.4667	
112.0	-5.0355	
112.5	3.2227	
113.0	-16.7178	
113.5	-7.2511	
114.0	-5.4383	
114.5	-10.0710	
115.0	-7.8553	
115.5	-18.3291	
116.0	-16.5164	
116.5	-4.2298	
117.0	-13.6965	
117.5	-0.2014	
118.0	-1.8128	
118.5	2.6184	
119.0	0.0000	
119.5	-5.0355	
120.0	-10.4738	
120.5	-11.4809	
121.0	1.8128	
121.5	-10.4738	
122.0	-6.6468	
122.5	-7.4525	
123.0	-2.8199	
123.5	2.2156	
124.0	-5.8412	
124.5	-9.4667	
125.0	6.8482	
125.5	5.4383	
126.0	-11.8837	
126.5	-5.0355	
127.0	-1.2085	
127.5	-0.6043	
128.0	11.4809	
128.5	-5.0355	
129.0	0.2014	
129.5	29.6086	
130.0	6.6468	
130.5	7.4525	
131.0	12.8908	
131.5	9.8695	
132.0	0.4028	
132.5	0.2014	
133.0	-0.2014	
133.5	9.0639	
134.0	2.2156	
134.5	2.6184	
135.0	-0.6043	
135.5	13.0922	
136.0	5.8412	
136.5	-10.6752	
137.0	-4.0284	
137.5	2.6184	
138.0	-5.8412	
138.5	-18.3291	
139.0	-3.2227	
139.5	-14.3008	
140.0	-12.4880	
140.5	-13.4951	
141.0	-4.8341	
141.5	-2.2156	
142.0	5.0355	
142.5	2.8199	
143.0	5.8412	
143.5	19.5377	
144.0	23.5660	
144.5	12.2866	
145.0	8.8624	
145.5	-1.0071	
146.0	10.2724	
146.5	-5.2369	
147.0	0.6043	
147.5	-10.6752	
148.0	-10.2724	
148.5	-11.4809	
149.0	0.2014	
149.5	-10.4738	
150.0	-5.6397	
150.5	-4.6326	
151.0	-3.8270	
151.5	14.3008	
152.0	-1.8128	
152.5	-8.0568	
153.0	-7.8553	
153.5	-11.2795	
154.0	5.8412	
154.5	5.2369	
155.0	-0.6043	
155.5	11.6823	
156.0	10.8766	
156.5	10.6752	
157.0	20.7462	
157.5	18.7320	
158.0	15.9121	
158.5	6.0426	
159.0	1.4099	
159.5	-5.2369	
160.0	-0.2014	
160.5	5.4383	
161.0	-13.0922	
161.5	-0.2014	
162.0	3.0213	
162.5	-11.4809	
163.0	-10.2724	
163.5	7.2511	
164.0	-15.7107	
164.5	-37.2625	
165.0	-20.7462	
165.5	-26.7887	
166.0	-12.2866	
166.5	2.2156	
167.0	16.7178	
167.5	-5.0355	
168.0	1.4099	
168.5	-7.2511	
169.0	-12.2866	
169.5	1.4099	
170.0	-8.6610	
170.5	-14.0993	
171.0	-14.7036	
171.5	-9.4667	
172.0	-14.7036	
172.5	0.2014	
173.0	-5.2369	
173.5	-2.8199	
174.0	-4.2298	
174.5	-3.0213	
175.0	10.4738	
175.5	4.0284	
176.0	-2.2156	
176.5	-4.8341	
177.0	-0.2014	
177.5	-9.0639	
178.0	-1.4099	
178.5	-10.6752	
179.0	-3.8270	
179.5	7.6539	
180.0	-2.2156	
180.5	-8.0568	
181.0	8.6610	
181.5	11.6823	
182.0	-0.6043	
182.5	-2.2156	
183.0	3.2227	
183.5	-11.0780	
184.0	-2.8199	
184.5	-7.4525	
185.0	-15.1064	
185.5	-5.2369	
186.0	-16.9192	
186.5	-3.4241	
187.0	0.8057	
187.5	6.0426	
188.0	-0.6043	
188.5	-8.6610	
189.0	-15.7107	
189.5	-13.0922	
190.0	-4.8341	
190.5	1.0071	
191.0	-4.2298	
191.5	-4.2298	
192.0	-15.1064	
192.5	-5.6397	
193.0	-14.7036	
193.5	-1.4099	
194.0	-11.0780	
194.5	-15.9121	
195.0	-3.2227	
195.5	-7.6539	
196.0	7.8553	
196.5	6.0426	
197.0	3.2227	
197.5	-1.4099	
198.0	-7.0497	
198.5	-14.5022	
199.0	2.2156	
199.5	-1.4099	
200.0	8.2582	
200.5	5.8412	
201.0	5.0355	
201.5	-1.8128	
202.0	6.2440	
202.5	1.6114	
203.0	5.2369	
203.5	-4.0284	
204.0	0.6043	
204.5	18.5306	
205.0	2.2156	
205.5	-1.2085	
206.0	-13.2937	
206.5	1.8128	
207.0	-7.0497	
207.5	-4.2298	
208.0	4.2298	
208.5	7.4525	
209.0	8.2582	
209.5	5.0355	
210.0	5.6397	
210.5	-8.6610	
211.0	-14.7036	
211.5	-24.7745	
212.0	1.0071	
212.5	1.8128	
213.0	4.4312	
213.5	8.0568	
214.0	9.6681	
214.5	10.8766	
215.0	0.6043	
215.5	11.0780	
216.0	-0.6043	
216.5	-2.8199	
217.0	-3.2227	
217.5	0.2014	
218.0	3.8270	
218.5	3.6255	
219.0	8.2582	
219.5	4.6326	
220.0	9.8695	
220.5	13.6965	
221.0	12.4880	
221.5	11.4809	
222.0	13.8979	
222.5	-0.2014	
223.0	-2.2156	
223.5	5.0355	
224.0	-1.6114	
224.5	5.0355	
225.0	33.4356	
225.5	-6.4454	
226.0	1.6114	
226.5	-0.2014	
227.0	3.8270	
227.5	2.0142	
228.0	2.4170	
228.5	1.4099	
229.0	4.6326	
229.5	-8.6610	
230.0	-13.4951	
230.5	-13.2937	
231.0	-6.0426	
231.5	-0.2014	
232.0	4.2298	
232.5	9.6681	
233.0	13.4951	
233.5	21.1490	
234.0	17.1206	
234.5	8.2582	
235.0	5.8412	
235.5	0.6043	
236.0	-6.2440	
236.5	6.0426	
237.0	1.4099	
237.5	3.6255	
238.0	9.2653	
238.5	4.8341	
239.0	-1.8128	
239.5	1.8128	
240.0	15.1064	
240.5	4.2298	
241.0	-1.8128	
241.5	-4.2298	
242.0	-15.5093	
242.5	-11.4809	
243.0	-1.6114	
243.5	-3.0213	
244.0	-8.2582	
244.5	-8.8624	
245.0	-6.2440	
245.5	-11.4809	
246.0	-2.6184	
246.5	-3.8270	
247.0	-15.1064	
247.5	3.4241	
248.0	-1.2085	
248.5	-11.4809	
249.0	3.0213	
249.5	-8.6610	
250.0	8.6610	
250.5	1.8128	
251.0	1.4099	
251.5	8.2582	
252.0	18.3291	
252.5	-0.2014	
253.0	11.6823	
253.5	6.4454	
254.0	-3.8270	
254.5	2.6184	
255.0	1.2085	
255.5	3.6255	
256.0	0.2014	
256.5	9.0639	
257.0	8.0568	
257.5	5.2369	
258.0	-12.4880	
258.5	-10.8766	
259.0	-3.0213	
259.5	-11.0780	
260.0	-15.1064	
260.5	-4.0284	
261.0	-3.6255	
261.5	-8.0568	
262.0	-14.0993	
262.5	-10.8766	
263.0	-6.2440	
263.5	-7.4525	
264.0	-12.2866	
264.5	-1.4099	
265.0	-5.4383	
265.5	-7.0497	
266.0	6.6468	
266.5	-0.2014	
267.0	11.4809	
267.5	7.2511	
268.0	15.3078	
268.5	9.4667	
269.0	5.2369	
269.5	3.8270	
270.0	7.8553	
270.5	8.6610	
271.0	5.8412	
271.5	15.3078	
272.0	5.0355	
272.5	0.8057	
273.0	7.6539	
273.5	-4.2298	
274.0	-20.7462	
274.5	9.8695	
275.0	7.4525	
275.5	-7.4525	
276.0	0.4028	
276.5	-12.6894	
277.0	-14.5022	
277.5	-20.5447	
278.0	1.4099	
278.5	-7.4525	
279.0	-13.8979	
279.5	0.2014	
280.0	-16.9192	
280.5	-13.4951	
281.0	-11.8837	
281.5	-3.6255	
282.0	-4.0284	
282.5	-0.4028	
283.0	-7.2511	
283.5	-18.9334	
284.0	10.6752	
284.5	-1.4099	
285.0	-0.6043	
285.5	-17.7249	
286.0	-2.6184	
286.5	-22.3575	
287.0	-26.7887	
287.5	-7.8553	
288.0	-1.8128	
288.5	3.8270	
289.0	0.8057	
289.5	-7.8553	
290.0	-29.6086	
290.5	-18.3291	
291.0	-20.7462	
291.5	-17.9263	
292.0	-14.7036	
292.5	-26.3859	
293.0	-15.9121	
293.5	-13.6965	
294.0	-11.4809	
294.5	-3.2227	
295.0	-4.2298	
295.5	10.8766	
296.0	-2.4170	
296.5	-6.0426	
297.0	8.4596	
297.5	-1.0071	
298.0	-8.6610	
298.5	11.0780	
299.0	8.6610	
299.5	4.6326	
300.0	12.8908	
300.5	30.4143	
301.0	11.2795	
301.5	7.2511	
302.0	-6.2440	
302.5	1.0071	
303.0	8.6610	
303.5	4.0284	
304.0	7.4525	
304.5	3.2227	
305.0	-4.0284	
305.5	7.4525	
306.0	-11.6823	
306.5	5.6397	
307.0	4.2298	
307.5	-2.2156	
308.0	-1.8128	
308.5	1.0071	
309.0	10.0710	
309.5	-11.0780	
310.0	-6.6468	
310.5	-7.4525	
311.0	-15.5093	
311.5	-8.2582	
312.0	-2.0142	
312.5	-11.0780	
313.0	-20.3433	
313.5	-0.6043	
314.0	-2.6184	
314.5	-16.1135	
315.0	-10.2724	
315.5	-15.7107	
316.0	-19.1348	
316.5	-11.2795	
317.0	-5.6397	
317.5	-2.2156	
318.0	-3.0213	
318.5	-14.3008	
319.0	-2.0142	
319.5	-9.8695	
320.0	-16.7178	
320.5	-0.4028	
321.0	-6.2440	
321.5	-7.2511	
322.0	-0.4028	
322.5	-5.6397	
323.0	6.6468	
323.5	-0.2014	
324.0	13.8979	
324.5	6.6468	
325.0	0.2014	
325.5	-7.8553	
326.0	-2.0142	
326.5	0.0000	
327.0	3.4241	
327.5	-1.0071	
328.0	6.8482	
328.5	0.6043	
329.0	4.8341	
329.5	2.4170	
330.0	4.2298	
330.5	-7.6539	
331.0	0.2014	
331.5	-4.4312	
332.0	6.8482	
332.5	-0.4028	
333.0	0.8057	
333.5	-17.9263	
334.0	-3.6255	
334.5	-11.4809	
335.0	10.4738	
335.5	-7.0497	
336.0	-0.6043	
336.5	16.5164	
337.0	4.8341	
337.5	17.1206	
338.0	4.6326	
338.5	3.4241	
339.0	-1.6114	
339.5	-6.2440	
340.0	1.4099	
340.5	-17.1206	
341.0	-8.0568	
341.5	-12.4880	
342.0	-8.6610	
342.5	-15.7107	
343.0	-8.2582	
343.5	3.6255	
344.0	-1.0071	
344.5	17.9263	
345.0	3.6255	
345.5	6.4454	
346.0	2.2156	
346.5	11.6823	
347.0	0.2014	
347.5	6.6468	
348.0	-0.2014	
348.5	4.2298	
349.0	-4.4312	
349.5	-5.8412	
350.0	-3.0213	
350.5	-9.4667	
351.0	-10.2724	
351.5	-3.0213	
352.0	-11.8837	
352.5	-10.2724	
353.0	-4.0284	
353.5	-2.0142	
354.0	-2.4170	
354.5	3.8270	
355.0	-1.8128	
355.5	7.0497	
356.0	2.6184	
356.5	7.2511	
357.0	-3.4241	
357.5	-3.4241	
358.0	-5.6397	
358.5	-8.6610	
359.0	-7.6539	
359.5	-11.6823	
360.0	-14.0993	
360.5	4.0284	
361.0	2.6184	
361.5	-5.8412	
362.0	2.0142	
362.5	-3.4241	
363.0	-6.2440	
363.5	4.2298	
364.0	1.0071	
364.5	10.2724	
365.0	-0.6043	
365.5	3.2227	
366.0	-2.6184	
366.5	-8.0568	
367.0	2.0142	
367.5	-6.0426	
368.0	-4.4312	
368.5	-6.0426	
369.0	-9.4667	
369.5	2.2156	
370.0	3.2227	
370.5	-6.2440	
371.0	-1.8128	
371.5	9.2653	
372.0	3.8270	
372.5	1.0071	
373.0	7.6539	
373.5	-7.6539	
374.0	-4.4312	
374.5	-23.9689	
375.0	-3.8270	
375.5	-5.2369	
376.0	-5.0355	
376.5	-31.6228	
377.0	2.2156	
377.5	9.0639	
378.0	2.0142	
378.5	-4.8341	
379.0	-0.4028	
379.5	1.4099	
380.0	-8.2582	
380.5	1.8128	
381.0	-2.2156	
381.5	-0.2014	
382.0	-7.8553	
382.5	-23.3646	
383.0	-17.9263	
383.5	-6.2440	
384.0	8.0568	
384.5	-9.2653	
385.0	-11.4809	
385.5	6.0426	
386.0	1.4099	
386.5	-5.8412	
387.0	-14.5022	
387.5	-2.8199	
388.0	-9.6681	
388.5	-2.4170	
389.0	-1.0071	
389.5	4.6326	
390.0	-10.2724	
390.5	-0.2014	
391.0	-3.2227	
391.5	-17.5235	
392.0	-1.8128	
392.5	-6.6468	
393.0	1.8128	
393.5	-4.6326	
394.0	-6.4454	
394.5	0.4028	
395.0	-4.4312	
395.5	-0.2014	
396.0	-6.8482	
396.5	1.2085	
397.0	-3.6255	
397.5	-3.2227	
398.0	-11.4809	
398.5	-0.6043	
399.0	-8.4596	
399.5	-20.7462	
400.0	2.6184	
400.5	5.8412	
401.0	4.8341	
401.5	3.6255	
402.0	14.7036	
402.5	1.6114	
403.0	-5.6397	
403.5	1.6114	
404.0	-17.9263	
404.5	-6.0426	
405.0	3.4241	
405.5	-7.2511	
406.0	5.8412	
406.5	-4.8341	
407.0	12.8908	
407.5	13.6965	
408.0	6.8482	
408.5	2.0142	
409.0	10.6752	
409.5	3.6255	
410.0	-1.2085	
410.5	2.2156	
411.0	-2.2156	
411.5	-15.5093	
412.0	-9.2653	
412.5	-11.8837	
413.0	-6.8482	
413.5	-4.6326	
414.0	0.6043	
414.5	6.8482	
415.0	-3.4241	
415.5	1.4099	
416.0	-14.5022	
416.5	-5.4383	
417.0	-10.2724	
417.5	-3.0213	
418.0	-5.4383	
418.5	11.0780	
419.0	-1.4099	
419.5	-19.1348	
420.0	-11.6823	
420.5	-8.2582	
421.0	-4.6326	
421.5	-14.3008	
422.0	-6.6468	
422.5	-3.2227	
423.0	-17.9263	
423.5	-15.3078	
424.0	-5.8412	
424.5	-1.4099	
425.0	-9.4667	
425.5	1.0071	
426.0	-2.8199	
426.5	3.6255	
427.0	-6.6468	
427.5	0.6043	
428.0	-2.8199	
428.5	2.8199	
429.0	4.0284	
429.5	-3.8270	
430.0	-7.2511	
430.5	-10.4738	
431.0	-7.8553	
431.5	1.6114	
432.0	-5.0355	
432.5	5.2369	
433.0	-1.8128	
433.5	-2.2156	
434.0	2.6184	
434.5	-11.4809	
435.0	-7.0497	
435.5	-7.8553	
436.0	-14.7036	
436.5	-5.6397	
437.0	-4.6326	
437.5	-1.8128	
438.0	-6.6468	
438.5	13.0922	
439.0	-5.4383	
439.5	0.8057	
440.0	9.0639	
440.5	2.4170	
441.0	1.6114	
441.5	-10.6752	
442.0	-5.8412	
442.5	-3.4241	
443.0	-0.6043	
443.5	-3.2227	
444.0	13.4951	
444.5	-21.5518	
445.0	5.0355	
445.5	-7.8553	
446.0	-0.6043	
446.5	5.8412	
447.0	-5.8412	
447.5	-20.5447	
448.0	-4.2298	
448.5	-9.8695	
449.0	-3.0213	
449.5	5.0355	
450.0	2.8199	
450.5	5.6397	
451.0	0.8057	
451.5	5.2369	
452.0	-6.0426	
452.5	7.8553	
453.0	21.5518	
453.5	18.9334	
454.0	4.4312	
454.5	-3.8270	
455.0	-2.8199	
455.5	6.6468	
456.0	17.3220	
456.5	17.1206	
457.0	18.7320	
457.5	15.9121	
458.0	7.4525	
458.5	2.0142	
459.0	-11.0780	
459.5	-5.4383	
460.0	-17.1206	
460.5	-3.6255	
461.0	-17.3220	
461.5	-13.4951	
462.0	-11.4809	
462.5	-17.9263	
463.0	-21.3504	
463.5	-13.6965	
464.0	-16.7178	
464.5	-7.4525	
465.0	-7.4525	
465.5	-15.3078	
466.0	-4.6326	
466.5	-15.9121	
467.0	-3.6255	
467.5	6.2440	
468.0	6.6468	
468.5	-11.8837	
469.0	0.4028	
469.5	1.2085	
470.0	-6.8482	
470.5	-5.0355	
471.0	-11.2795	
471.5	-11.0780	
472.0	-11.8837	
472.5	-10.4738	
473.0	-3.0213	
473.5	-9.0639	
474.0	-17.9263	
474.5	-1.8128	
475.0	-1.0071	
475.5	9.6681	
476.0	5.6397	
476.5	-18.3291	
477.0	4.8341	
477.5	0.6043	
478.0	1.0071	
478.5	-2.6184	
479.0	-11.4809	
479.5	-9.2653	
480.0	-7.8553	
480.5	-6.2440	
481.0	0.8057	
481.5	-2.8199	
482.0	-6.8482	
482.5	1.0071	
483.0	-4.6326	
483.5	0.6043	
484.0	2.6184	
484.5	4.6326	
485.0	4.4312	
485.5	2.6184	
486.0	5.4383	
486.5	9.6681	
487.0	-0.6043	
487.5	3.0213	
488.0	4.2298	
488.5	9.0639	
489.0	-8.0568	
489.5	-3.6255	
490.0	-8.6610	
490.5	-17.3220	
491.0	6.8482	
491.5	1.4099	
492.0	-16.1135	
492.5	0.0000	
493.0	-2.8199	
493.5	10.6752	
494.0	9.2653	
494.5	9.8695	
495.0	-1.0071	
495.5	6.4454	
496.0	2.2156	
496.5	4.0284	
497.0	14.7036	
497.5	15.1064	
498.0	8.2582	
498.5	20.1419	
499.0	10.2724	
499.5	3.4241	
500.0	9.4667	
500.5	10.2724	
501.0	18.1277	
501.5	2.6184	
502.0	7.8553	
502.5	-6.2440	
503.0	-11.8837	
503.5	-17.5235	
504.0	-20.5447	
504.5	-20.1419	
505.0	-21.9547	
505.5	-1.0071	
506.0	-13.6965	
506.5	-0.2014	
507.0	-11.4809	
507.5	-3.8270	
508.0	-8.4596	
508.5	-4.2298	
509.0	-13.8979	
509.5	-13.8979	
510.0	-16.7178	
510.5	-18.3291	
511.0	9.2653	
511.5	-15.5093	
512.0	-6.8482	
512.5	-7.0497	
513.0	-8.0568	
513.5	-1.8128	
514.0	16.1135	
514.5	-7.0497	
515.0	-4.2298	
515.5	7.0497	
516.0	-2.8199	
516.5	-26.3859	
517.0	-7.0497	
517.5	-6.2440	
518.0	1.6114	
518.5	-3.0213	
519.0	-8.2582	
519.5	-10.4738	
520.0	-0.8057	
520.5	-1.8128	
521.0	0.8057	
521.5	-6.6468	
522.0	5.6397	
522.5	12.4880	
523.0	-2.0142	
523.5	4.6326	
524.0	4.8341	
524.5	7.4525	
525.0	1.4099	
525.5	-0.4028	
526.0	0.4028	
526.5	-8.2582	
527.0	-4.8341	
527.5	2.6184	
528.0	3.8270	
528.5	8.0568	
529.0	-11.0780	
529.5	-4.4312	
530.0	1.4099	
530.5	1.0071	
531.0	-10.6752	
531.5	-17.7249	
532.0	-19.7391	
532.5	-7.4525	
533.0	-13.2937	
533.5	-14.9050	
534.0	-13.0922	
534.5	-20.1419	
535.0	-0.6043	
535.5	-2.2156	
536.0	-11.0780	
536.5	-1.8128	
537.0	-10.2724	
537.5	-3.8270	
538.0	2.4170	
538.5	-7.4525	
539.0	-8.6610	
539.5	-1.8128	
540.0	2.0142	
540.5	2.0142	
541.0	9.8695	
541.5	4.2298	
542.0	5.8412	
542.5	11.4809	
543.0	5.8412	
543.5	-0.2014	
544.0	0.0000	
544.5	1.8128	
545.0	1.8128	
545.5	-5.4383	
546.0	0.4028	
546.5	7.0497	
547.0	39.2767	
547.5	14.0993	
548.0	2.4170	
548.5	-2.0142	
549.0	0.6043	
549.5	-1.4099	
550.0	7.4525	
550.5	4.2298	
551.0	3.6255	
551.5	6.4454	
552.0	5.4383	
552.5	-4.6326	
553.0	-3.2227	
553.5	-14.7036	
554.0	-6.8482	
554.5	11.6823	
555.0	6.6468	
555.5	-2.4170	
556.0	-0.6043	
556.5	-3.8270	
557.0	-2.6184	
557.5	-9.2653	
558.0	-0.4028	
558.5	1.4099	
559.0	4.2298	
559.5	-6.0426	
560.0	-7.2511	
560.5	-4.4312	
561.0	9.8695	
561.5	-4.2298	
562.0	2.6184	
562.5	2.2156	
563.0	0.4028	
563.5	2.2156	
564.0	11.4809	
564.5	-22.5589	
565.0	-20.3433	
565.5	1.8128	
566.0	1.8128	
566.5	4.0284	
567.0	-5.0355	
567.5	-3.0213	
568.0	-5.0355	
568.5	-1.0071	
569.0	-8.2582	
569.5	1.0071	
570.0	-0.6043	
570.5	-0.2014	
571.0	-7.8553	
571.5	-3.2227	
572.0	8.2582	
572.5	5.2369	
573.0	-1.2085	
573.5	-4.2298	
574.0	-2.8199	
574.5	-2.2156	
575.0	-16.3149	
575.5	-10.4738	
576.0	16.7178	
576.5	3.6255	
577.0	1.8128	
577.5	-5.4383	
578.0	8.6610	
578.5	14.9050	
579.0	-4.4312	
579.5	-16.7178	
580.0	-17.3220	
580.5	-1.6114	
581.0	0.6043	
581.5	11.0780	
582.0	3.8270	
582.5	-1.8128	
583.0	2.2156	
583.5	4.2298	
584.0	4.8341	
584.5	-9.8695	
585.0	-14.3008	
585.5	-10.6752	
586.0	2.4170	
586.5	0.2014	
587.0	4.8341	
587.5	2.8199	
588.0	-3.4241	
588.5	-23.5660	
589.0	-2.4170	
589.5	-11.0780	
590.0	-7.6539	
590.5	1.2085	
591.0	-11.0780	
591.5	3.2227	
592.0	11.0780	
592.5	-0.6043	
593.0	-6.0426	
593.5	-3.4241	
594.0	-8.2582	
594.5	-16.3149	
595.0	-17.7249	
595.5	-2.6184	
596.0	1.8128	
596.5	5.2369	
597.0	-13.4951	
597.5	-13.4951	
598.0	-26.7887	
598.5	-29.4072	
599.0	-21.1490	
599.5	-17.1206	
600.0	-15.9121	
600.5	-17.1206	
601.0	-10.0710	
601.5	-13.0922	
602.0	-10.2724	
602.5	-21.7533	
603.0	-12.4880	
603.5	-5.4383	
604.0	-5.0355	
604.5	-16.3149	
605.0	-20.7462	
605.5	-19.1348	
606.0	-24.7745	
606.5	-5.2369	
607.0	5.4383	
607.5	8.0568	
608.0	-6.2440	
608.5	1.8128	
609.0	-2.2156	
609.5	3.8270	
610.0	4.2298	
610.5	9.8695	
611.0	1.2085	
611.5	6.6468	
612.0	-15.1064	
612.5	8.8624	
613.0	-12.6894	
613.5	-11.0780	
614.0	-1.6114	
614.5	2.6184	
615.0	6.4454	
615.5	7.4525	
616.0	6.0426	
616.5	15.5093	
617.0	13.4951	
617.5	19.9405	
618.0	-1.2085	
618.5	-1.4099	
619.0	-2.4170	
619.5	7.0497	
620.0	10.2724	
620.5	4.0284	
621.0	6.8482	
621.5	-7.0497	
622.0	1.0071	
622.5	12.6894	
623.0	-3.0213	
623.5	-8.0568	
624.0	-1.0071	
624.5	-9.6681	
625.0	-5.0355	
625.5	-11.4809	
626.0	-5.4383	
626.5	6.8482	
627.0	-4.4312	
627.5	4.6326	
628.0	-5.4383	
628.5	-5.8412	
629.0	0.0000	
629.5	-4.6326	
630.0	5.4383	
630.5	5.4383	
631.0	5.4383	
631.5	5.4383	
632.0	5.4383	
632.5	5.4383	
633.0	5.4383	
633.5	5.4383	
634.0	5.4383	
634.5	5.4383	
635.0	5.4383	
635.5	5.4383	
636.0	5.4383	
636.5	5.4383	
637.0	5.4383	
637.5	-0.2014	
638.0	4.6326	
638.5	-0.2014	
639.0	1.8128	
639.5	-9.0639	
640.0	-7.8553	
640.5	-6.2440	
641.0	7.4525	
641.5	13.8979	
642.0	14.3008	
642.5	12.2866	
643.0	2.0142	
643.5	5.0355	
644.0	-3.6255	
644.5	3.8270	
645.0	2.8199	
645.5	2.8199	
646.0	0.4028	
646.5	5.8412	
647.0	-0.4028	
647.5	1.2085	
648.0	1.0071	
648.5	-11.0780	
649.0	-2.4170	
649.5	-7.2511	
650.0	-3.0213	
650.5	-4.4312	
651.0	-0.6043	
651.5	-2.2156	
652.0	4.8341	
652.5	3.4241	
653.0	6.8482	
653.5	-8.2582	
654.0	-4.6326	
654.5	-4.2298	
655.0	1.6114	
655.5	-13.8979	
656.0	-5.6397	
656.5	-14.7036	
657.0	-9.8695	
657.5	-0.6043	
658.0	-25.5802	
658.5	-34.6441	
659.0	-4.0284	
659.5	-11.6823	
660.0	-1.0071	
660.5	-8.2582	
661.0	-23.7675	
661.5	-1.4099	
662.0	2.8199	
662.5	10.6752	
663.0	16.5164	
663.5	14.3008	
664.0	18.7320	
664.5	-6.0426	
665.0	-8.6610	
665.5	-16.7178	
666.0	-7.2511	
666.5	-31.4214	
667.0	-14.3008	
667.5	-28.4001	
668.0	-31.2200	
668.5	-36.6583	
669.0	-13.8979	
669.5	-28.8029	
670.0	-6.6468	
670.5	-12.0851	
671.0	-1.0071	
671.5	-6.6468	
672.0	8.2582	
672.5	-14.9050	
673.0	0.6043	
673.5	-5.0355	
674.0	0.2014	
674.5	4.6326	
675.0	16.3149	
675.5	18.7320	
676.0	19.7391	
676.5	-0.6043	
